SpectraSuite Data File
++++++++++++++++++++++++++++++++++++
Date: Tue Jun 16 16:54:18 CEST 2015
User: root
Dark Spectrum Present: No
Reference Spectrum Present: No
Number of Sampled Component Spectra: 1
Spectrometers: USB2G14742
Integration Time (usec): 3000 (USB2G14742)
Spectra Averaged: 5 (USB2G14742)
Boxcar Smoothing: 0 (USB2G14742)
Correct for Electrical Dark: Yes (USB2G14742)
Strobe/Lamp Enabled: No (USB2G14742)
Correct for Detector Non-linearity: Yes (USB2G14742)
Correct for Stray Light: No (USB2G14742)
Number of Pixels in Processed Spectrum: 2048
>>>>>Begin Processed Spectral Data<<<<<
339.47	-5.95
339.86	-5.95
340.24	-6.38
340.63	-4.85
341.01	-2.44
341.39	-2.22
341.78	-2.00
342.16	-0.25
342.55	1.06
342.93	1.28
343.32	1.06
343.70	-0.69
344.09	0.41
344.47	1.28
344.85	1.06
345.24	-0.69
345.62	1.94
346.01	1.06
346.39	1.72
346.77	3.03
347.16	0.19
347.54	0.41
347.93	0.62
348.31	1.72
348.69	1.50
349.08	2.16
349.46	4.34
349.84	3.91
350.23	5.66
350.61	4.56
350.99	2.81
351.38	3.69
351.76	4.56
352.14	4.78
352.53	6.09
352.91	5.88
353.29	4.56
353.68	5.44
354.06	6.09
354.44	8.06
354.83	8.72
355.21	7.63
355.59	6.75
355.97	6.97
356.36	7.41
356.74	6.75
357.12	5.88
357.51	5.88
357.89	5.88
358.27	5.88
358.65	6.97
359.04	6.75
359.42	6.75
359.80	7.84
360.18	8.06
360.57	9.16
360.95	9.81
361.33	10.03
361.71	10.69
362.10	12.87
362.48	11.12
362.86	11.34
363.24	12.00
363.62	13.96
364.01	14.62
364.39	14.40
364.77	13.74
365.15	15.71
365.53	17.02
365.91	17.46
366.30	19.20
366.68	17.68
367.06	16.37
367.44	15.93
367.82	16.58
368.20	16.37
368.59	15.93
368.97	18.99
369.35	20.73
369.73	21.82
370.11	22.04
370.49	20.95
370.87	21.39
371.25	25.31
371.64	23.79
372.02	24.22
372.40	23.79
372.78	24.22
373.16	25.09
373.54	23.57
373.92	22.91
374.30	24.00
374.68	24.88
375.06	25.75
375.44	26.84
375.82	28.80
376.21	31.63
376.59	34.46
376.97	34.46
377.35	35.55
377.73	40.12
378.11	40.34
378.49	42.52
378.87	40.34
379.25	40.12
379.63	40.12
380.01	42.08
380.39	42.30
380.77	45.99
381.15	44.91
381.53	44.91
381.91	42.95
382.29	39.91
382.67	38.16
383.05	36.86
383.43	38.60
383.81	40.12
384.19	43.17
384.57	48.39
384.95	50.12
385.33	57.07
385.71	55.34
386.08	56.20
386.46	57.51
386.84	62.49
387.22	59.24
387.60	63.15
387.98	61.63
388.36	62.49
388.74	67.70
389.12	68.35
389.50	76.36
389.88	81.98
390.26	83.93
390.63	85.87
391.01	91.71
391.39	92.14
391.77	89.76
392.15	88.90
392.53	74.19
392.91	64.45
393.29	61.41
393.66	62.28
394.04	68.78
394.42	84.14
394.80	95.16
395.18	102.28
395.56	102.50
395.93	97.32
396.31	85.23
396.69	78.74
397.07	86.09
397.45	92.79
397.83	121.01
398.20	126.17
398.58	145.71
398.96	148.92
399.34	161.13
399.72	163.69
400.09	166.69
400.47	172.03
400.85	179.72
401.23	181.64
401.60	184.41
401.98	186.76
402.36	188.46
402.74	195.92
403.11	190.60
403.49	195.50
403.87	192.94
404.25	199.54
404.62	201.89
405.00	195.28
405.38	201.46
405.75	200.18
406.13	203.38
406.51	202.10
406.89	207.21
407.26	208.70
407.64	219.11
408.02	228.03
408.39	224.21
408.77	240.11
409.15	244.14
409.52	233.12
409.90	229.51
410.28	236.51
410.65	236.09
411.03	254.93
411.41	263.18
411.78	262.76
412.16	270.57
412.54	277.33
412.91	271.84
413.29	271.84
413.66	280.70
414.04	279.65
414.42	279.86
414.79	280.92
415.17	292.09
415.54	293.56
415.92	292.93
416.30	290.61
416.67	305.77
417.05	297.77
417.42	281.97
417.80	296.93
418.18	301.56
418.55	300.72
418.93	295.04
419.30	305.98
419.68	299.04
420.05	311.87
420.43	309.34
420.80	336.85
421.18	338.31
421.55	328.67
421.93	324.26
422.30	332.86
422.68	322.16
423.06	326.99
423.43	339.99
423.81	332.86
424.18	346.90
424.56	354.02
424.93	349.83
425.30	345.02
425.68	349.00
426.05	360.50
426.43	362.39
426.80	354.23
427.18	359.46
427.55	349.00
427.93	354.44
428.30	365.73
428.68	350.67
429.05	339.78
429.43	342.71
429.80	332.23
430.17	320.48
430.55	308.92
430.92	315.23
431.30	354.44
431.67	391.19
432.04	394.94
432.42	407.44
432.79	432.38
433.17	436.11
433.54	427.40
433.91	415.97
434.29	418.25
434.66	440.06
435.03	453.74
435.41	462.64
435.78	466.98
436.16	494.87
436.53	487.65
436.90	499.20
437.28	488.68
437.65	480.21
438.02	476.08
438.40	457.26
438.77	487.24
439.14	496.52
439.52	497.35
439.89	496.11
440.26	502.50
440.63	526.39
441.01	528.45
441.38	548.17
441.75	558.22
442.13	563.35
442.50	559.66
442.87	557.20
443.24	552.48
443.62	573.18
443.99	588.33
444.36	594.87
444.73	569.91
445.11	573.59
445.48	564.58
445.85	569.70
446.22	585.87
446.60	593.23
446.97	619.98
447.34	616.31
447.71	625.89
448.09	645.44
448.46	619.98
448.83	667.60
449.20	612.64
449.57	635.67
449.95	662.52
450.32	664.14
450.69	678.76
451.06	682.01
451.43	711.58
451.80	683.22
452.18	656.42
452.55	645.44
452.92	658.05
453.29	667.60
453.66	668.82
454.03	683.22
454.40	716.84
454.78	687.28
455.15	700.04
455.52	711.78
455.89	716.84
456.26	709.15
456.63	725.33
457.00	711.99
457.37	728.36
457.74	720.07
458.12	743.30
458.49	703.08
458.86	711.58
459.23	730.38
459.60	714.82
459.97	729.57
460.34	723.31
460.71	752.38
461.08	777.96
461.45	754.60
461.82	765.27
462.19	782.58
462.56	768.70
462.93	776.95
463.30	751.57
463.67	734.42
464.04	762.05
464.41	763.46
464.78	748.75
465.15	755.60
465.52	764.27
465.89	769.71
466.26	775.54
466.63	744.31
467.00	763.66
467.37	789.82
467.74	798.06
468.11	785.40
468.48	776.75
468.85	809.51
469.22	822.35
469.59	807.70
469.96	804.89
470.33	807.10
470.70	803.89
471.07	850.19
471.44	828.56
471.81	854.79
472.18	844.78
472.55	851.59
472.91	880.96
473.28	833.57
473.65	865.38
474.02	861.79
474.39	903.90
474.76	910.88
475.13	932.37
475.50	925.81
475.87	894.93
476.23	940.92
476.60	928.00
476.97	918.64
477.34	955.23
477.71	959.40
478.08	945.10
478.45	958.80
478.81	993.71
479.18	994.50
479.55	1014.89
479.92	1023.00
480.29	1047.89
480.65	1020.62
481.02	1026.75
481.39	1002.02
481.76	1063.88
482.13	1073.34
482.49	1066.24
482.86	1069.60
483.23	1085.17
483.60	1074.92
483.97	1047.10
484.33	1069.79
484.70	1067.03
485.07	1061.12
485.44	1013.70
485.80	961.98
486.17	932.77
486.54	962.38
486.91	979.83
487.27	1011.72
487.64	1040.59
488.01	1069.60
488.38	1086.74
488.74	1088.71
489.11	1087.14
489.48	1106.24
489.84	1136.32
490.21	1147.13
490.58	1149.68
490.94	1142.02
491.31	1127.28
491.68	1129.44
492.04	1095.80
492.41	1107.02
492.78	1122.76
493.14	1146.34
493.51	1143.40
493.88	1150.07
494.24	1164.79
494.61	1182.84
494.98	1179.11
495.34	1178.33
495.71	1167.35
496.08	1172.05
496.44	1195.78
496.81	1184.60
497.17	1179.51
497.54	1183.62
497.91	1158.12
498.27	1140.84
498.64	1146.15
499.00	1151.25
499.37	1164.60
499.74	1151.05
500.10	1140.25
500.47	1128.85
500.83	1123.55
501.20	1102.50
501.56	1097.18
501.93	1101.91
502.30	1112.93
502.66	1124.53
503.03	1123.35
503.39	1113.52
503.76	1101.51
504.12	1097.38
504.49	1108.80
504.85	1123.35
505.22	1143.00
505.58	1152.23
505.95	1173.03
506.31	1159.30
506.68	1156.16
507.04	1147.52
507.41	1127.48
507.77	1122.37
508.14	1116.86
508.50	1123.74
508.87	1147.52
509.23	1144.57
509.59	1144.38
509.96	1140.45
510.32	1133.57
510.69	1145.75
511.05	1147.91
511.42	1156.16
511.78	1162.44
512.15	1146.34
512.51	1134.95
512.87	1127.48
513.24	1120.99
513.60	1115.09
513.97	1105.25
514.33	1106.24
514.69	1110.57
515.06	1114.30
515.42	1110.37
515.79	1103.48
516.15	1083.59
516.51	1039.60
516.88	993.51
517.24	991.53
517.60	1012.12
517.97	1005.78
518.33	997.87
518.69	1014.69
519.06	1038.41
519.42	1055.59
519.78	1070.78
520.15	1086.74
520.51	1098.76
520.87	1088.32
521.24	1111.16
521.60	1111.16
521.96	1119.42
522.33	1100.53
522.69	1088.91
523.05	1081.82
523.41	1104.86
523.78	1115.48
524.14	1129.64
524.50	1124.14
524.86	1124.73
525.23	1117.45
525.59	1114.50
525.95	1094.82
526.32	1063.88
526.68	1032.88
527.04	1018.05
527.40	1053.81
527.76	1068.22
528.13	1087.93
528.49	1101.12
528.85	1117.65
529.21	1129.84
529.57	1125.32
529.94	1109.19
530.30	1120.60
530.66	1134.16
531.02	1142.81
531.38	1127.09
531.75	1123.94
532.11	1098.17
532.47	1078.07
532.83	1075.31
533.19	1075.91
533.55	1083.59
533.92	1090.29
534.28	1092.85
534.64	1090.09
535.00	1113.52
535.36	1119.22
535.72	1127.68
536.08	1123.35
536.44	1097.77
536.81	1092.46
537.17	1075.71
537.53	1097.38
537.89	1098.76
538.25	1101.32
538.61	1092.65
538.97	1084.38
539.33	1069.20
539.69	1065.06
540.05	1036.44
540.41	1046.12
540.78	1031.69
541.14	1026.75
541.50	1048.68
541.86	1052.83
542.22	1062.50
542.58	1042.76
542.94	1045.33
543.30	1043.94
543.66	1056.77
544.02	1061.71
544.38	1054.80
544.74	1048.29
545.10	1055.00
545.46	1047.30
545.82	1049.47
546.18	1045.33
546.54	1049.67
546.90	1044.54
547.26	1048.09
547.62	1032.29
547.98	1028.73
548.34	1030.31
548.70	1047.89
549.06	1035.05
549.42	1043.75
549.78	1033.67
550.13	1045.52
550.49	1031.50
550.85	1030.71
551.21	1028.14
551.57	1030.11
551.93	1025.37
552.29	1027.94
552.65	1014.29
553.01	1017.46
553.37	1022.80
553.73	1023.00
554.09	1029.92
554.44	1023.00
554.80	1028.73
555.16	1029.32
555.52	1010.73
555.88	1008.56
556.24	1013.11
556.60	988.36
556.95	985.78
557.31	975.27
557.67	971.11
558.03	969.32
558.39	967.73
558.75	953.84
559.10	950.06
559.46	953.84
559.82	943.51
560.18	961.38
560.54	973.69
560.90	973.29
561.25	959.99
561.61	955.82
561.97	959.60
562.33	965.35
562.68	970.91
563.04	971.90
563.40	966.35
563.76	954.04
564.12	957.81
564.47	962.57
564.83	957.02
565.19	950.26
565.55	937.34
565.90	933.96
566.26	930.38
566.62	937.34
566.97	935.95
567.33	931.97
567.69	928.59
568.05	931.18
568.40	911.87
568.76	911.87
569.12	911.87
569.47	902.11
569.83	897.92
570.19	894.13
570.54	879.37
570.90	885.55
571.26	886.55
571.61	891.94
571.97	904.90
572.33	914.86
572.68	906.49
573.04	908.68
573.40	906.69
573.75	913.07
574.11	907.09
574.47	898.12
574.82	895.53
575.18	882.76
575.53	882.76
575.89	883.16
576.25	881.96
576.60	878.17
576.96	886.95
577.31	889.74
577.67	878.37
578.03	873.38
578.38	866.38
578.74	865.18
579.09	873.38
579.45	877.57
579.80	885.75
580.16	879.97
580.51	878.17
580.87	881.36
581.23	892.14
581.58	881.56
581.94	895.33
582.29	886.15
582.65	891.34
583.00	900.71
583.36	891.34
583.71	895.13
584.07	886.15
584.42	883.56
584.78	887.55
585.13	870.38
585.49	858.99
585.84	860.19
586.20	849.79
586.55	853.79
586.91	860.39
587.26	845.58
587.61	835.57
587.97	823.35
588.32	789.82
588.68	754.19
589.03	722.10
589.39	709.56
589.74	712.39
590.09	719.87
590.45	741.49
590.80	752.98
591.16	750.56
591.51	752.58
591.86	752.38
592.22	755.00
592.57	762.86
592.93	758.83
593.28	760.04
593.63	766.89
593.99	754.80
594.34	749.96
594.69	745.72
595.05	741.89
595.40	751.77
595.76	752.58
596.11	760.24
596.46	754.39
596.82	756.41
597.17	766.68
597.52	759.23
597.87	749.55
598.23	757.22
598.58	760.64
598.93	759.63
599.29	762.86
599.64	761.04
599.99	767.49
600.35	763.26
600.70	767.29
601.05	758.02
601.40	747.94
601.76	755.20
602.11	754.39
602.46	751.17
602.81	758.63
603.17	765.88
603.52	760.04
603.87	764.47
604.22	766.68
604.58	760.24
604.93	768.50
605.28	751.97
605.63	765.48
605.98	753.79
606.34	760.04
606.69	752.18
607.04	752.98
607.39	749.96
607.74	747.74
608.10	739.27
608.45	743.10
608.80	733.21
609.15	739.27
609.50	729.98
609.85	719.06
610.21	729.77
610.56	728.97
610.91	730.38
611.26	723.71
611.61	731.39
611.96	722.50
612.31	722.90
612.67	716.84
613.02	711.58
613.37	706.12
613.72	700.65
614.07	698.42
614.42	705.51
614.77	699.03
615.12	703.89
615.47	696.20
615.82	688.50
616.17	679.57
616.53	675.11
616.88	682.41
617.23	681.60
617.58	685.25
617.93	685.66
618.28	691.33
618.63	686.67
618.98	687.89
619.33	685.45
619.68	694.98
620.03	693.97
620.38	687.48
620.73	695.99
621.08	690.12
621.43	684.24
621.78	689.71
622.13	676.12
622.48	674.30
622.83	673.49
623.18	670.85
623.53	664.75
623.88	662.32
624.23	660.08
624.58	654.80
624.93	648.29
625.28	646.87
625.63	649.71
625.98	647.48
626.32	647.07
626.67	643.00
627.02	643.20
627.37	630.78
627.72	623.85
628.07	616.31
628.42	614.88
628.77	613.04
629.12	626.30
629.47	615.90
629.82	617.12
630.16	611.62
630.51	613.45
630.86	620.80
631.21	611.41
631.56	612.64
631.91	603.25
632.26	618.96
632.60	618.35
632.95	614.88
633.30	606.51
633.65	617.94
634.00	612.84
634.35	615.08
634.69	618.35
635.04	611.21
635.39	612.64
635.74	609.17
636.09	605.08
636.43	614.88
636.78	609.17
637.13	607.33
637.48	614.68
637.83	612.02
638.17	612.43
638.52	615.49
638.87	605.90
639.22	605.90
639.56	595.48
639.91	595.89
640.26	597.93
640.61	590.98
640.95	584.03
641.30	591.80
641.65	580.76
642.00	583.42
642.34	584.64
642.69	587.10
643.04	575.84
643.38	578.71
643.73	569.70
644.08	571.95
644.43	574.82
644.77	569.09
645.12	562.73
645.47	558.02
645.81	550.43
646.16	544.06
646.51	531.74
646.85	534.00
647.20	518.36
647.54	519.80
647.89	511.36
648.24	510.33
648.58	510.13
648.93	507.86
649.28	499.62
649.62	497.14
649.97	507.65
650.31	523.10
650.66	520.01
651.01	511.98
651.35	508.27
651.70	500.85
652.04	506.21
652.39	507.24
652.74	508.89
653.08	508.27
653.43	508.89
653.77	510.54
654.12	500.65
654.46	502.09
654.81	494.05
655.15	483.31
655.50	461.19
655.85	440.68
656.19	430.09
656.54	429.89
656.88	437.15
657.23	446.90
657.57	453.74
657.92	465.74
658.26	472.98
658.61	472.77
658.95	482.90
659.30	480.63
659.64	486.62
659.98	490.33
660.33	485.79
660.67	487.03
661.02	483.73
661.36	492.60
661.71	488.06
662.05	493.22
662.40	487.24
662.74	483.73
663.09	482.90
663.43	481.25
663.77	480.01
664.12	471.12
664.46	475.05
664.81	477.73
665.15	478.35
665.49	475.05
665.84	475.25
666.18	467.60
666.53	475.25
666.87	464.09
667.21	468.22
667.56	458.91
667.90	469.47
668.24	466.57
668.59	462.64
668.93	462.22
669.27	459.12
669.62	456.22
669.96	463.88
670.30	456.01
670.65	460.78
670.99	449.18
671.33	449.18
671.68	441.30
672.02	446.90
672.36	449.38
672.71	445.24
673.05	446.07
673.39	448.76
673.73	440.06
674.08	437.98
674.42	436.74
674.76	438.60
675.11	435.70
675.45	437.77
675.79	438.40
676.13	430.09
676.48	434.45
676.82	432.38
677.16	427.81
677.50	428.64
677.84	424.69
678.19	429.89
678.53	428.43
678.87	421.99
679.21	424.07
679.55	420.54
679.90	413.26
680.24	423.45
680.58	421.58
680.92	420.54
681.26	414.51
681.61	416.80
681.95	415.76
682.29	411.39
682.63	413.47
682.97	406.19
683.31	405.77
683.65	402.65
684.00	398.90
684.34	396.61
684.68	397.44
685.02	394.32
685.36	396.19
685.70	389.94
686.04	379.51
686.38	353.60
686.73	321.32
687.07	301.14
687.41	299.25
687.75	299.25
688.09	306.19
688.43	313.13
688.77	308.08
689.11	306.40
689.45	314.60
689.79	319.01
690.13	315.86
690.47	319.64
690.81	326.99
691.15	328.46
691.49	334.75
691.83	332.44
692.17	328.67
692.51	330.35
692.85	319.01
693.19	316.91
693.53	323.84
693.87	313.13
694.21	306.82
694.55	315.65
694.89	307.24
695.23	308.29
695.57	312.08
695.91	316.07
696.25	324.89
696.59	329.93
696.93	335.59
697.27	327.62
697.61	328.67
697.95	326.36
698.29	323.63
698.63	314.39
698.97	319.22
699.31	305.14
699.65	306.40
699.99	302.19
700.32	298.61
700.66	295.46
701.00	295.88
701.34	295.46
701.68	290.19
702.02	298.83
702.36	287.03
702.70	296.30
703.04	298.19
703.37	296.51
703.71	304.30
704.05	303.03
704.39	304.30
704.73	302.40
705.07	305.56
705.40	299.04
705.74	300.72
706.08	295.67
706.42	294.19
706.76	297.56
707.10	295.46
707.43	299.04
707.77	298.83
708.11	298.83
708.45	293.77
708.78	294.82
709.12	293.56
709.46	295.88
709.80	292.93
710.14	292.93
710.47	293.14
710.81	290.82
711.15	284.92
711.49	290.40
711.82	287.03
712.16	285.77
712.50	282.39
712.83	285.77
713.17	278.59
713.51	280.28
713.85	280.92
714.18	273.74
714.52	268.46
714.86	263.39
715.19	265.29
715.53	263.81
715.87	254.72
716.20	242.87
716.54	225.69
716.88	212.74
717.21	198.27
717.55	190.81
717.89	179.72
718.22	172.24
718.56	171.60
718.90	158.34
719.23	162.84
719.57	161.98
719.91	161.77
720.24	163.69
720.58	170.96
720.91	182.92
721.25	195.50
721.59	205.08
721.92	208.27
722.26	212.31
722.59	207.63
722.93	202.31
723.27	194.01
723.60	184.41
723.94	183.13
724.27	175.02
724.61	175.66
724.94	176.09
725.28	172.24
725.61	172.24
725.95	172.67
726.28	175.45
726.62	176.30
726.96	176.30
727.29	166.90
727.63	166.90
727.96	172.03
728.30	178.01
728.63	173.74
728.97	169.04
729.30	172.24
729.63	170.32
729.97	176.73
730.30	169.47
730.64	174.59
730.97	169.25
731.31	172.24
731.64	178.22
731.98	184.84
732.31	194.43
732.65	199.76
732.98	198.69
733.31	204.44
733.65	207.84
733.98	211.46
734.32	208.06
734.65	206.99
734.98	215.29
735.32	210.82
735.65	204.44
735.99	200.82
736.32	205.50
736.65	205.50
736.99	205.93
737.32	203.59
737.66	204.87
737.99	202.74
738.32	209.97
738.66	204.23
738.99	207.21
739.32	209.97
739.66	207.84
739.99	208.91
740.32	214.01
740.66	210.40
740.99	207.42
741.32	212.10
741.65	205.93
741.99	207.84
742.32	209.97
742.65	208.48
742.99	214.44
743.32	215.71
743.65	216.35
743.98	215.50
744.32	214.44
744.65	214.22
744.98	215.50
745.32	213.37
745.65	215.92
745.98	214.65
746.31	215.92
746.64	214.86
746.98	208.06
747.31	211.25
747.64	209.12
747.97	213.59
748.31	212.95
748.64	206.57
748.97	207.42
749.30	205.08
749.63	211.03
749.96	206.57
750.30	203.16
750.63	209.33
750.96	206.78
751.29	204.44
751.62	203.80
751.95	205.93
752.29	200.18
752.62	199.54
752.95	202.74
753.28	203.38
753.61	199.54
753.94	199.54
754.27	199.97
754.60	198.05
754.94	198.69
755.27	194.65
755.60	194.86
755.93	196.35
756.26	195.71
756.59	196.78
756.92	189.74
757.25	190.60
757.58	192.94
757.91	186.97
758.24	187.19
758.57	182.71
758.90	170.11
759.24	146.14
759.57	113.05
759.90	90.63
760.23	70.08
760.56	60.76
760.89	52.73
761.22	57.29
761.55	64.88
761.88	65.96
762.21	68.13
762.54	69.86
762.87	65.75
763.20	67.91
763.53	68.56
763.86	69.65
764.19	74.84
764.52	80.04
764.85	88.68
765.17	94.51
765.50	96.89
765.83	104.87
766.16	111.76
766.49	121.87
766.82	128.11
767.15	135.20
767.48	141.42
767.81	145.71
768.14	151.71
768.47	151.06
768.80	155.99
769.13	151.06
769.45	163.27
769.78	161.13
770.11	158.77
770.44	162.62
770.77	157.70
771.10	158.34
771.43	158.99
771.75	159.20
772.08	155.35
772.41	157.06
772.74	160.27
773.07	162.20
773.40	160.27
773.73	157.27
774.05	152.99
774.38	158.77
774.71	150.42
775.04	152.99
775.37	156.85
775.69	151.92
776.02	153.21
776.35	151.92
776.68	154.71
777.00	149.78
777.33	149.35
777.66	151.06
777.99	147.21
778.32	146.14
778.64	150.21
778.97	147.64
779.30	143.13
779.62	143.78
779.95	143.78
780.28	144.64
780.61	140.78
780.93	142.71
781.26	140.78
781.59	142.49
781.92	137.34
782.24	137.13
782.57	141.20
782.90	137.13
783.22	136.48
783.55	134.34
783.88	134.34
784.20	135.41
784.53	134.34
784.86	135.20
785.18	130.26
785.51	132.19
785.84	131.33
786.16	130.47
786.49	127.68
786.81	128.11
787.14	122.09
787.47	125.96
787.79	123.16
788.12	121.23
788.44	119.51
788.77	120.15
789.10	120.37
789.42	117.79
789.75	113.91
790.07	110.68
790.40	114.34
790.73	116.50
791.05	113.48
791.38	113.91
791.70	114.34
792.03	113.05
792.35	108.75
792.68	111.55
793.00	113.48
793.33	113.91
793.65	111.33
793.98	113.27
794.30	112.62
794.63	109.61
794.95	112.62
795.28	110.90
795.60	111.55
795.93	106.16
796.25	108.75
796.58	107.88
796.90	105.94
797.23	105.73
797.55	102.93
797.88	106.59
798.20	105.73
798.53	107.67
798.85	105.73
799.17	106.81
799.50	105.94
799.82	102.06
800.15	102.93
800.47	103.79
800.80	98.61
801.12	97.53
801.44	100.55
801.77	102.50
802.09	98.18
802.42	97.32
802.74	99.26
803.06	96.24
803.39	94.51
803.71	93.87
804.03	93.22
804.36	95.81
804.68	95.38
805.00	94.94
805.33	95.38
805.65	97.10
805.97	95.59
806.30	95.16
806.62	96.89
806.94	96.24
807.27	97.75
807.59	94.08
807.91	95.59
808.24	90.63
808.56	92.79
808.88	92.35
809.21	89.76
809.53	86.95
809.85	88.03
810.17	85.44
810.50	85.23
810.82	84.14
811.14	83.71
811.46	82.85
811.79	80.69
812.11	80.47
812.43	74.84
812.75	74.84
813.07	70.30
813.40	69.86
813.72	66.18
814.04	63.15
814.36	64.45
814.69	60.98
815.01	55.55
815.33	55.55
815.65	55.99
815.97	56.85
816.29	56.42
816.62	54.90
816.94	52.95
817.26	50.34
817.58	51.21
817.90	51.21
818.22	53.82
818.54	51.86
818.87	55.55
819.19	53.60
819.51	52.73
819.83	53.38
820.15	54.47
820.47	58.16
820.79	58.59
821.11	60.98
821.43	59.02
821.76	59.02
822.08	59.02
822.40	54.90
822.72	48.82
823.04	45.34
823.36	47.30
823.68	51.43
824.00	54.03
824.32	55.77
824.64	56.85
824.96	59.02
825.28	59.02
825.60	59.02
825.92	58.37
826.24	59.89
826.56	60.54
826.88	58.16
827.20	59.02
827.52	53.16
827.84	55.34
828.16	55.34
828.48	52.73
828.80	54.47
829.12	55.99
829.44	54.90
829.76	54.03
830.08	56.85
830.40	55.12
830.72	55.34
