SpectraSuite Data File
++++++++++++++++++++++++++++++++++++
Date: Tue Jun 16 17:18:03 CEST 2015
User: root
Dark Spectrum Present: No
Reference Spectrum Present: No
Number of Sampled Component Spectra: 1
Spectrometers: USB2G14742
Integration Time (usec): 13000 (USB2G14742)
Spectra Averaged: 5 (USB2G14742)
Boxcar Smoothing: 0 (USB2G14742)
Correct for Electrical Dark: Yes (USB2G14742)
Strobe/Lamp Enabled: No (USB2G14742)
Correct for Detector Non-linearity: Yes (USB2G14742)
Correct for Stray Light: No (USB2G14742)
Number of Pixels in Processed Spectrum: 2048
>>>>>Begin Processed Spectral Data<<<<<
339.47	-7.30
339.86	-7.30
340.24	-6.64
340.63	-5.55
341.01	-3.36
341.39	-2.26
341.78	-0.95
342.16	-1.39
342.55	-0.51
342.93	-0.29
343.32	1.46
343.70	2.12
344.09	1.68
344.47	1.68
344.85	1.68
345.24	2.12
345.62	1.46
346.01	0.37
346.39	0.37
346.77	-0.29
347.16	0.37
347.54	0.58
347.93	0.37
348.31	0.58
348.69	2.34
349.08	2.99
349.46	3.43
349.84	3.65
350.23	2.55
350.61	4.09
350.99	3.87
351.38	2.55
351.76	1.90
352.14	2.55
352.53	2.12
352.91	2.34
353.29	1.90
353.68	3.65
354.06	3.87
354.44	3.87
354.83	4.30
355.21	5.40
355.59	4.74
355.97	2.34
356.36	4.30
356.74	3.21
357.12	3.21
357.51	3.65
357.89	3.43
358.27	3.21
358.65	3.65
359.04	3.87
359.42	3.65
359.80	3.87
360.18	6.27
360.57	5.84
360.95	4.52
361.33	5.84
361.71	5.40
362.10	6.05
362.48	6.93
362.86	6.49
363.24	6.05
363.62	5.40
364.01	5.40
364.39	6.05
364.77	6.49
365.15	6.49
365.53	6.93
365.91	8.02
366.30	6.27
366.68	9.33
367.06	7.15
367.44	6.49
367.82	7.15
368.20	8.68
368.59	8.46
368.97	8.02
369.35	8.02
369.73	8.02
370.11	9.33
370.49	8.68
370.87	9.33
371.25	11.08
371.64	10.21
372.02	8.90
372.40	10.21
372.78	11.52
373.16	11.30
373.54	9.99
373.92	10.21
374.30	9.99
374.68	8.68
375.06	10.65
375.44	11.08
375.82	11.74
376.21	10.65
376.59	11.96
376.97	11.96
377.35	14.14
377.73	13.27
378.11	16.11
378.49	15.45
378.87	15.02
379.25	13.71
379.63	15.23
380.01	17.20
380.39	16.11
380.77	16.11
381.15	17.64
381.53	15.45
381.91	16.54
382.29	16.11
382.67	15.89
383.05	15.67
383.43	13.92
383.81	14.58
384.19	15.89
384.57	18.29
384.95	20.47
385.33	20.04
385.71	20.04
386.08	20.47
386.46	22.44
386.84	21.35
387.22	22.44
387.60	22.44
387.98	21.35
388.36	22.66
388.74	22.44
389.12	25.49
389.50	29.20
389.88	26.36
390.26	29.41
390.63	30.72
391.01	32.25
391.39	32.68
391.77	32.03
392.15	29.85
392.53	28.76
392.91	25.27
393.29	23.31
393.66	23.31
394.04	26.58
394.42	28.11
394.80	34.21
395.18	35.30
395.56	37.69
395.93	37.04
396.31	32.25
396.69	30.29
397.07	28.11
397.45	32.25
397.83	37.91
398.20	44.22
398.58	48.78
398.96	52.69
399.34	53.34
399.72	60.07
400.09	55.73
400.47	57.90
400.85	58.77
401.23	65.06
401.60	62.89
401.98	67.44
402.36	67.44
402.74	69.39
403.11	67.66
403.49	68.52
403.87	68.52
404.25	73.72
404.62	69.61
405.00	69.82
405.38	73.72
405.75	71.99
406.13	72.86
406.51	74.37
406.89	74.15
407.26	76.10
407.64	75.24
408.02	81.08
408.39	82.16
408.77	87.35
409.15	90.16
409.52	84.75
409.90	81.29
410.28	87.56
410.65	87.13
411.03	91.67
411.41	97.06
411.78	99.44
412.16	99.87
412.54	102.67
412.91	100.08
413.29	104.61
413.66	106.77
414.04	104.40
414.42	110.00
414.79	106.34
415.17	110.64
415.54	117.96
415.92	112.15
416.30	113.23
416.67	114.95
417.05	117.32
417.42	108.28
417.80	118.82
418.18	117.32
418.55	115.81
418.93	112.15
419.30	119.68
419.68	119.04
420.05	123.77
420.43	124.63
420.80	141.38
421.18	136.66
421.55	134.08
421.93	134.73
422.30	133.65
422.68	135.59
423.06	131.29
423.43	139.45
423.81	142.24
424.18	146.53
424.56	145.24
424.93	146.31
425.30	148.03
425.68	148.24
426.05	151.67
426.43	151.03
426.80	150.60
427.18	151.67
427.55	148.24
427.93	158.09
428.30	156.59
428.68	149.31
429.05	145.03
429.43	149.53
429.80	142.88
430.17	139.66
430.55	133.01
430.92	136.66
431.30	157.02
431.67	168.79
432.04	173.27
432.42	172.42
432.79	188.43
433.17	191.20
433.54	187.15
433.91	185.65
434.29	185.44
434.66	193.12
435.03	196.95
435.41	205.68
435.78	209.72
436.16	221.83
436.53	220.35
436.90	224.81
437.28	220.98
437.65	214.61
438.02	215.67
438.40	207.59
438.77	221.62
439.14	223.11
439.52	226.93
439.89	225.65
440.26	229.05
440.63	244.52
441.01	244.31
441.38	251.51
441.75	260.61
442.13	257.65
442.50	262.09
442.87	260.39
443.24	264.20
443.62	270.75
443.99	275.60
444.36	285.31
444.73	268.21
445.11	268.85
445.48	263.78
445.85	273.07
446.22	274.13
446.60	280.46
446.97	294.15
447.34	294.79
447.71	301.31
448.09	311.41
448.46	298.37
448.83	317.50
449.20	295.00
449.57	311.83
449.95	324.22
450.32	321.49
450.69	333.45
451.06	327.58
451.43	345.19
451.80	330.94
452.18	322.12
452.55	312.46
452.92	324.22
453.29	330.52
453.66	330.94
454.03	341.42
454.40	364.44
454.78	343.51
455.15	352.10
455.52	347.07
455.89	356.28
456.26	357.75
456.63	359.00
457.00	353.56
457.37	359.84
457.74	361.51
458.12	366.95
458.49	352.52
458.86	362.14
459.23	370.92
459.60	362.77
459.97	370.29
460.34	371.96
460.71	383.65
461.08	391.99
461.45	382.81
461.82	391.16
462.19	399.91
462.56	392.82
462.93	401.36
463.30	388.24
463.67	383.23
464.04	392.61
464.41	391.78
464.78	388.03
465.15	387.82
465.52	398.45
465.89	403.86
466.26	405.53
466.63	388.86
467.00	400.74
467.37	409.06
467.74	418.42
468.11	410.94
468.48	407.40
468.85	420.50
469.22	435.04
469.59	427.77
469.96	420.71
470.33	424.45
470.70	420.29
471.07	448.73
471.44	438.15
471.81	450.80
472.18	455.15
472.55	449.55
472.91	471.29
473.28	441.26
473.65	461.57
474.02	463.43
474.39	480.80
474.76	489.68
475.13	506.38
475.50	506.59
475.87	497.52
476.23	511.12
476.60	512.36
476.97	503.29
477.34	513.80
477.71	518.12
478.08	516.06
478.45	521.21
478.81	539.71
479.18	541.56
479.55	549.98
479.92	561.06
480.29	577.04
480.65	560.65
481.02	565.57
481.39	559.62
481.76	581.74
482.13	596.47
482.49	589.31
482.86	589.31
483.23	599.12
483.60	598.71
483.97	586.04
484.33	586.24
484.70	587.27
485.07	578.26
485.44	570.28
485.80	539.30
486.17	529.64
486.54	541.77
486.91	546.28
487.27	563.11
487.64	582.56
488.01	602.60
488.38	603.82
488.74	616.27
489.11	614.03
489.48	627.28
489.84	643.17
490.21	653.74
490.58	653.13
490.94	657.40
491.31	644.79
491.68	640.32
492.04	625.65
492.41	644.18
492.78	654.56
493.14	656.59
493.51	661.47
493.88	672.43
494.24	670.40
494.61	686.43
494.98	689.67
495.34	683.39
495.71	691.30
496.08	687.85
496.44	705.68
496.81	704.87
497.17	709.32
497.54	701.02
497.91	692.71
498.27	693.73
498.64	689.07
499.00	703.25
499.37	704.46
499.74	708.51
500.10	701.42
500.47	690.89
500.83	690.28
501.20	684.20
501.56	678.93
501.93	688.66
502.30	694.94
502.66	711.54
503.03	713.57
503.39	712.76
503.76	703.65
504.12	712.15
504.49	719.23
504.85	733.78
505.22	747.50
505.58	750.93
505.95	764.23
506.31	765.04
506.68	766.85
507.04	766.25
507.41	762.02
507.77	758.79
508.14	767.25
508.50	762.42
508.87	784.96
509.23	792.60
509.59	794.41
509.96	792.20
510.32	802.44
510.69	815.69
511.05	813.89
511.42	834.33
511.78	834.13
512.15	834.53
512.51	835.34
512.87	833.53
513.24	826.12
513.60	830.53
513.97	825.52
514.33	825.92
514.69	841.54
515.06	853.55
515.42	859.15
515.79	859.95
516.15	836.34
516.51	808.87
516.88	783.35
517.24	790.39
517.60	810.88
517.97	812.08
518.33	816.29
518.69	831.33
519.06	854.35
519.42	882.72
519.78	891.30
520.15	915.42
520.51	928.36
520.87	930.35
521.24	946.05
521.60	961.55
521.96	974.05
522.33	964.13
522.69	963.93
523.05	969.09
523.41	988.91
523.78	1004.76
524.14	1017.03
524.50	1026.72
524.86	1036.60
525.23	1029.48
525.59	1032.45
525.95	1022.37
526.32	995.45
526.68	969.48
527.04	964.32
527.40	997.24
527.76	1010.50
528.13	1042.72
528.49	1057.53
528.85	1084.54
529.21	1086.31
529.57	1097.74
529.94	1096.56
530.30	1112.30
530.66	1118.79
531.02	1141.40
531.38	1139.43
531.75	1130.39
532.11	1113.87
532.47	1092.03
532.83	1093.40
533.19	1097.93
533.55	1120.96
533.92	1115.45
534.28	1115.45
534.64	1120.96
535.00	1150.63
535.36	1155.14
535.72	1165.35
536.08	1170.45
536.44	1152.98
536.81	1149.25
537.17	1138.45
537.53	1149.06
537.89	1168.29
538.25	1162.21
538.61	1167.31
538.97	1156.91
539.33	1137.27
539.69	1142.77
540.05	1108.96
540.41	1125.48
540.78	1109.94
541.14	1112.89
541.50	1136.68
541.86	1141.59
542.22	1142.77
542.58	1146.50
542.94	1132.75
543.30	1135.30
543.66	1147.29
544.02	1155.73
544.38	1160.44
544.74	1159.46
545.10	1164.17
545.46	1156.91
545.82	1166.72
546.18	1167.70
546.54	1164.76
546.90	1159.46
547.26	1157.50
547.62	1153.77
547.98	1152.39
548.34	1160.44
548.70	1167.11
549.06	1168.09
549.42	1165.15
549.78	1176.92
550.13	1171.43
550.49	1174.76
550.85	1160.05
551.21	1169.86
551.57	1180.06
551.93	1170.06
552.29	1167.90
552.65	1156.32
553.01	1162.01
553.37	1155.93
553.73	1172.21
554.09	1181.43
554.44	1172.61
554.80	1183.59
555.16	1179.47
555.52	1173.19
555.88	1168.29
556.24	1166.72
556.60	1142.18
556.95	1135.30
557.31	1133.73
557.67	1130.39
558.03	1124.89
558.39	1117.81
558.75	1113.09
559.10	1103.25
559.46	1107.38
559.82	1094.78
560.18	1118.20
560.54	1124.49
560.90	1125.28
561.25	1126.26
561.61	1112.10
561.97	1105.61
562.33	1115.25
562.68	1120.17
563.04	1113.28
563.40	1116.43
563.76	1107.58
564.12	1115.45
564.47	1109.35
564.83	1114.27
565.19	1103.45
565.55	1082.57
565.90	1073.90
566.26	1084.15
566.62	1072.12
566.97	1087.10
567.33	1079.22
567.69	1076.07
568.05	1070.35
568.40	1056.34
568.76	1056.34
569.12	1053.78
569.47	1038.38
569.83	1028.69
570.19	1043.91
570.54	1013.27
570.90	1011.69
571.26	1017.62
571.61	1014.85
571.97	1033.04
572.33	1032.05
572.68	1041.34
573.04	1035.81
573.40	1028.89
573.75	1040.35
574.11	1039.96
574.47	1026.32
574.82	1016.63
575.18	1005.95
575.53	1003.37
575.89	997.24
576.25	1003.57
576.60	997.04
576.96	999.41
577.31	1001.99
577.67	1001.59
578.03	990.70
578.38	978.41
578.74	978.61
579.09	982.37
579.45	991.49
579.80	996.44
580.16	997.24
580.51	989.91
580.87	994.86
581.23	998.62
581.58	1002.58
581.94	1018.21
582.29	1006.54
582.65	998.82
583.00	1004.17
583.36	1005.75
583.71	1000.21
584.07	1000.01
584.42	993.08
584.78	987.73
585.13	979.20
585.49	965.12
585.84	967.10
586.20	964.32
586.55	967.50
586.91	962.94
587.26	962.94
587.61	942.08
587.97	919.20
588.32	894.30
588.68	858.15
589.03	810.27
589.39	811.08
589.74	808.07
590.09	817.30
590.45	836.34
590.80	853.35
591.16	853.35
591.51	854.75
591.86	853.15
592.22	858.15
592.57	864.95
592.93	872.94
593.28	867.55
593.63	867.75
593.99	856.95
594.34	839.14
594.69	846.75
595.05	856.95
595.40	854.95
595.76	855.15
596.11	868.35
596.46	871.94
596.82	867.35
597.17	876.34
597.52	874.54
597.87	870.94
598.23	875.74
598.58	876.93
598.93	878.53
599.29	881.93
599.64	879.73
599.99	888.31
600.35	878.73
600.70	882.52
601.05	874.34
601.40	865.35
601.76	876.93
602.11	864.95
602.46	877.33
602.81	878.13
603.17	883.72
603.52	894.50
603.87	891.30
604.22	890.51
604.58	881.93
604.93	892.30
605.28	880.73
605.63	891.90
605.98	878.13
606.34	878.73
606.69	874.54
607.04	872.94
607.39	870.94
607.74	873.94
608.10	858.15
608.45	864.95
608.80	857.15
609.15	860.15
609.50	854.75
609.85	844.35
610.21	847.35
610.56	846.95
610.91	855.95
611.26	852.35
611.61	842.14
611.96	847.75
612.31	832.13
612.67	833.53
613.02	820.30
613.37	819.70
613.72	803.45
614.07	804.25
614.42	824.52
614.77	822.71
615.12	817.10
615.47	806.66
615.82	798.43
616.17	791.19
616.53	784.56
616.88	780.13
617.23	782.35
617.58	794.61
617.93	799.23
618.28	796.02
618.63	800.24
618.98	790.59
619.33	803.45
619.68	798.83
620.03	804.05
620.38	797.62
620.73	805.46
621.08	795.01
621.43	794.61
621.78	786.17
622.13	782.95
622.48	786.97
622.83	780.94
623.18	777.32
623.53	774.50
623.88	770.68
624.23	771.48
624.58	768.06
624.93	754.76
625.28	754.96
625.63	753.75
625.98	757.78
626.32	762.62
626.67	759.19
627.02	759.60
627.37	749.32
627.72	741.65
628.07	730.95
628.42	732.16
628.77	732.16
629.12	730.75
629.47	733.98
629.82	728.93
630.16	732.57
630.51	731.76
630.86	734.18
631.21	733.78
631.56	723.27
631.91	727.92
632.26	739.03
632.60	742.05
632.95	743.47
633.30	730.75
633.65	739.43
634.00	736.40
634.35	738.22
634.69	740.24
635.04	738.22
635.39	741.85
635.74	723.07
636.09	726.71
636.43	726.30
636.78	729.54
637.13	729.54
637.48	736.60
637.83	732.16
638.17	723.27
638.52	733.78
638.87	713.97
639.22	719.84
639.56	707.09
639.91	707.70
640.26	701.02
640.61	698.99
640.95	690.08
641.30	693.93
641.65	689.88
642.00	691.70
642.34	685.62
642.69	683.59
643.04	677.91
643.38	685.01
643.73	673.85
644.08	667.97
644.43	666.14
644.77	653.74
645.12	653.13
645.47	639.71
645.81	638.69
646.16	629.32
646.51	623.82
646.85	614.44
647.20	607.29
647.54	590.74
647.89	587.47
648.24	586.86
648.58	585.22
648.93	580.11
649.28	575.81
649.62	567.20
649.97	579.29
650.31	591.36
650.66	583.79
651.01	576.83
651.35	578.67
651.70	567.20
652.04	568.84
652.39	579.90
652.74	571.71
653.08	577.24
653.43	572.53
653.77	575.19
654.12	569.66
654.46	565.57
654.81	554.08
655.15	541.56
655.50	518.53
655.85	502.05
656.19	480.80
656.54	477.90
656.88	488.85
657.23	493.60
657.57	518.12
657.92	519.56
658.26	523.88
658.61	523.06
658.95	532.31
659.30	533.96
659.64	538.48
659.98	536.22
660.33	528.82
660.67	530.46
661.02	535.19
661.36	532.93
661.71	529.64
662.05	528.82
662.40	527.79
662.74	525.12
663.09	515.24
663.43	521.83
663.77	514.21
664.12	506.38
664.46	504.53
664.81	503.91
665.15	499.78
665.49	503.91
665.84	495.04
666.18	496.28
666.53	495.87
666.87	486.99
667.21	486.58
667.56	481.21
667.90	480.18
668.24	483.48
668.59	476.46
668.93	483.89
669.27	478.52
669.62	473.15
669.96	467.57
670.30	468.19
670.65	473.15
670.99	464.05
671.33	461.15
671.68	461.57
672.02	457.84
672.36	454.11
672.71	457.84
673.05	453.28
673.39	452.66
673.73	454.53
674.08	446.45
674.42	452.25
674.76	455.77
675.11	447.48
675.45	450.59
675.79	448.73
676.13	443.96
676.48	447.90
676.82	450.38
677.16	446.24
677.50	446.45
677.84	440.64
678.19	448.93
678.53	442.71
678.87	445.20
679.21	447.90
679.55	439.60
679.90	439.19
680.24	443.96
680.58	436.70
680.92	442.30
681.26	440.22
681.61	441.68
681.95	441.05
682.29	436.49
682.63	444.79
682.97	439.40
683.31	438.57
683.65	439.19
684.00	434.21
684.34	435.45
684.68	439.60
685.02	433.79
685.36	443.34
685.70	439.81
686.04	426.94
686.38	405.74
686.73	379.89
687.07	349.38
687.41	348.33
687.75	360.88
688.09	373.21
688.43	383.86
688.77	380.73
689.11	385.73
689.45	393.66
689.79	401.16
690.13	411.35
690.47	430.06
690.81	436.28
691.15	444.99
691.49	453.90
691.83	462.81
692.17	457.43
692.51	466.32
692.85	466.32
693.19	469.43
693.53	469.84
693.87	467.57
694.21	476.25
694.55	482.45
694.89	476.46
695.23	488.64
695.57	503.91
695.91	516.47
696.25	534.78
696.59	546.08
696.93	564.54
697.27	569.87
697.61	572.53
697.95	576.42
698.29	577.45
698.63	568.43
698.97	578.06
699.31	577.65
699.65	580.92
699.99	572.33
700.32	578.06
700.66	576.22
701.00	582.15
701.34	581.95
701.68	589.72
702.02	595.04
702.36	596.26
702.70	612.19
703.04	623.41
703.37	641.95
703.71	640.72
704.05	651.91
704.39	653.13
704.73	665.12
705.07	670.00
705.40	673.25
705.74	671.01
706.08	671.42
706.42	678.32
706.76	685.42
707.10	689.47
707.43	690.69
707.77	696.56
708.11	709.72
708.45	706.89
708.78	701.63
709.12	714.78
709.46	712.96
709.80	721.45
710.14	721.86
710.47	728.53
710.81	734.18
711.15	730.95
711.49	732.57
711.82	733.78
712.16	732.16
712.50	740.44
712.83	737.61
713.17	735.39
713.51	742.66
713.85	736.60
714.18	728.93
714.52	724.89
714.86	727.72
715.19	719.63
715.53	716.20
715.87	692.11
716.20	672.23
716.54	627.49
716.88	586.45
717.21	564.13
717.55	538.07
717.89	517.71
718.22	507.00
718.56	487.40
718.90	484.72
719.23	471.70
719.57	469.84
719.91	473.98
720.24	478.52
720.58	517.30
720.91	553.88
721.25	583.58
721.59	618.52
721.92	633.60
722.26	640.93
722.59	634.41
722.93	617.09
723.27	586.04
723.60	572.94
723.94	571.71
724.27	554.08
724.61	553.67
724.94	548.75
725.28	546.08
725.61	548.75
725.95	552.24
726.28	557.98
726.62	563.31
726.96	565.36
727.29	557.98
727.63	553.47
727.96	558.39
728.30	576.63
728.63	565.36
728.97	561.26
729.30	564.75
729.63	569.25
729.97	576.83
730.30	583.38
730.64	585.43
730.97	585.43
731.31	590.33
731.64	610.35
731.98	628.10
732.31	649.47
732.65	655.37
732.98	673.25
733.31	698.39
733.65	707.70
733.98	721.25
734.32	722.87
734.65	727.11
734.98	723.47
735.32	715.79
735.65	720.44
735.99	715.59
736.32	723.07
736.65	717.21
736.99	728.32
737.32	730.95
737.66	727.11
737.99	736.81
738.32	742.66
738.66	726.30
738.99	732.16
739.32	734.79
739.66	744.27
739.99	755.97
740.32	746.49
740.66	758.99
740.99	759.60
741.32	762.42
741.65	756.57
741.99	768.66
742.32	768.46
742.65	774.70
742.99	785.56
743.32	786.37
743.65	782.35
743.98	782.15
744.32	787.58
744.65	781.14
744.98	785.36
745.32	782.75
745.65	782.15
745.98	788.38
746.31	787.98
746.64	787.98
746.98	787.78
747.31	785.36
747.64	782.35
747.97	788.58
748.31	780.34
748.64	775.71
748.97	774.70
749.30	767.65
749.63	767.05
749.96	768.06
750.30	776.31
750.63	771.28
750.96	759.40
751.29	770.27
751.62	760.60
751.95	762.62
752.29	763.22
752.62	754.16
752.95	758.79
753.28	758.39
753.61	760.60
753.94	761.41
754.27	754.16
754.60	753.15
754.94	753.15
755.27	747.30
755.60	754.96
755.93	748.51
756.26	742.46
756.59	743.26
756.92	726.10
757.25	732.16
757.58	733.98
757.91	721.66
758.24	715.39
758.57	693.32
758.90	645.81
759.24	557.36
759.57	455.35
759.90	356.07
760.23	277.08
760.56	227.14
760.89	209.72
761.22	220.98
761.55	253.63
761.88	269.27
762.21	268.21
762.54	261.87
762.87	256.17
763.20	253.20
763.53	262.51
763.86	276.66
764.19	299.42
764.52	309.94
764.85	342.26
765.17	362.77
765.50	388.45
765.83	421.96
766.16	443.34
766.49	479.97
766.82	507.21
767.15	529.85
767.48	555.72
767.81	574.17
768.14	593.40
768.47	594.01
768.80	606.48
769.13	609.33
769.45	622.19
769.78	622.59
770.11	633.80
770.44	627.89
770.77	621.78
771.10	634.41
771.43	629.73
771.75	626.26
772.08	629.93
772.41	633.80
772.74	623.82
773.07	627.28
773.40	629.73
773.73	624.84
774.05	623.41
774.38	617.50
774.71	620.76
775.04	615.66
775.37	608.93
775.69	604.43
776.02	607.09
776.35	608.11
776.68	611.78
777.00	597.69
777.33	593.40
777.66	589.93
777.99	582.56
778.32	585.83
778.64	586.04
778.97	582.56
779.30	590.74
779.62	573.76
779.95	580.92
780.28	577.45
780.61	565.57
780.93	568.02
781.26	567.61
781.59	571.30
781.92	559.62
782.24	561.67
782.57	564.13
782.90	547.31
783.22	547.11
783.55	550.80
783.88	543.61
784.20	541.36
784.53	541.36
784.86	542.38
785.18	537.45
785.51	533.55
785.84	540.33
786.16	526.56
786.49	523.27
786.81	516.27
787.14	508.85
787.47	507.00
787.79	505.35
788.12	488.85
788.44	494.01
788.77	491.74
789.10	482.45
789.42	476.87
789.75	475.42
790.07	470.67
790.40	476.46
790.73	473.56
791.05	466.12
791.38	460.53
791.70	467.15
792.03	460.53
792.35	458.67
792.68	454.11
793.00	462.19
793.33	465.08
793.65	470.05
793.98	461.15
794.30	460.32
794.63	461.15
794.95	458.25
795.28	453.08
795.60	446.45
795.93	448.73
796.25	444.58
796.58	439.60
796.90	440.22
797.23	441.47
797.55	444.79
797.88	448.52
798.20	440.22
798.53	439.60
798.85	446.65
799.17	434.83
799.50	436.49
799.82	426.53
800.15	421.54
800.47	413.64
800.80	414.89
801.12	415.10
801.44	414.27
801.77	413.85
802.09	410.31
802.42	403.65
802.74	401.57
803.06	409.69
803.39	405.11
803.71	400.95
804.03	396.16
804.36	398.86
804.68	407.61
805.00	400.74
805.33	406.57
805.65	404.90
805.97	397.41
806.30	399.28
806.62	402.82
806.94	401.57
807.27	401.36
807.59	401.99
807.91	391.99
808.24	388.86
808.56	386.57
808.88	376.97
809.21	367.78
809.53	371.96
809.85	368.83
810.17	362.14
810.50	353.35
810.82	355.03
811.14	355.66
811.46	343.93
811.79	336.60
812.11	328.21
812.43	317.08
812.75	317.71
813.07	303.84
813.40	290.78
813.72	280.03
814.04	274.76
814.36	265.26
814.69	258.07
815.01	248.97
815.33	254.05
815.65	237.96
815.97	229.47
816.29	227.14
816.62	225.02
816.94	229.69
817.26	223.74
817.58	224.38
817.90	220.98
818.22	219.92
818.54	222.26
818.87	230.32
819.19	226.50
819.51	227.99
819.83	231.81
820.15	241.77
820.47	257.22
820.79	260.39
821.11	265.04
821.43	265.68
821.76	258.70
822.08	248.55
822.40	224.17
822.72	203.12
823.04	199.29
823.36	204.19
823.68	212.06
824.00	228.41
824.32	239.44
824.64	238.38
824.96	253.63
825.28	252.57
825.60	250.66
825.92	249.82
826.24	254.90
826.56	255.95
826.88	251.09
827.20	249.18
827.52	242.19
827.84	234.35
828.16	235.41
828.48	236.47
828.80	228.41
829.12	230.11
829.44	234.35
829.76	234.14
830.08	233.08
830.40	237.74
830.72	238.38
831.04	234.99
